# F2 Net System Transmission with JH Filter
# (BARR ED313; Gemini ID JH_G0809) (1=100%)
# Wavelength (micron)
0.8000	0.0000
0.8005	0.0000
0.8010	0.0000
0.8015	0.0000
0.8020	0.0000
0.8025	0.0000
0.8030	0.0000
0.8035	0.0000
0.8040	0.0000
0.8045	0.0000
0.8050	0.0000
0.8055	0.0000
0.8060	0.0000
0.8065	0.0000
0.8070	0.0000
0.8075	0.0000
0.8080	0.0000
0.8085	0.0000
0.8090	0.0000
0.8095	0.0000
0.8100	0.0000
0.8105	0.0000
0.8110	0.0000
0.8115	0.0000
0.8120	0.0000
0.8125	0.0000
0.8130	0.0000
0.8135	0.0000
0.8140	0.0000
0.8145	0.0000
0.8150	0.0000
0.8155	0.0000
0.8160	0.0000
0.8165	0.0000
0.8170	0.0000
0.8175	0.0000
0.8180	0.0000
0.8185	0.0000
0.8190	0.0000
0.8195	0.0000
0.8200	0.0000
0.8205	0.0000
0.8210	0.0000
0.8215	0.0000
0.8220	0.0000
0.8225	0.0000
0.8230	0.0000
0.8235	0.0000
0.8240	0.0000
0.8245	0.0000
0.8250	0.0000
0.8255	0.0000
0.8260	0.0000
0.8265	0.0000
0.8270	0.0000
0.8275	0.0000
0.8280	0.0000
0.8285	0.0000
0.8290	0.0000
0.8295	0.0000
0.8300	0.0000
0.8305	0.0000
0.8310	0.0000
0.8315	0.0000
0.8320	0.0000
0.8325	0.0000
0.8330	0.0000
0.8335	0.0000
0.8340	0.0000
0.8345	0.0000
0.8350	0.0000
0.8355	0.0000
0.8360	0.0000
0.8365	0.0000
0.8370	0.0000
0.8375	0.0000
0.8380	0.0000
0.8385	0.0000
0.8390	0.0000
0.8395	0.0000
0.8400	0.0000
0.8405	0.0000
0.8410	0.0000
0.8415	0.0000
0.8420	0.0000
0.8425	0.0000
0.8430	0.0000
0.8435	0.0000
0.8440	0.0000
0.8445	0.0000
0.8450	0.0000
0.8455	0.0000
0.8460	0.0000
0.8465	0.0000
0.8470	0.0000
0.8475	0.0000
0.8480	0.0000
0.8485	0.0000
0.8490	0.0000
0.8495	0.0000
0.8500	0.0000
0.8505	0.0000
0.8510	0.0000
0.8515	0.0000
0.8520	0.0000
0.8525	0.0000
0.8530	0.0000
0.8535	0.0000
0.8540	0.0000
0.8545	0.0000
0.8550	0.0000
0.8555	0.0001
0.8560	0.0000
0.8565	0.0000
0.8570	0.0001
0.8575	0.0001
0.8580	0.0000
0.8585	0.0000
0.8590	0.0001
0.8595	0.0001
0.8600	0.0001
0.8605	0.0001
0.8610	0.0001
0.8615	0.0001
0.8620	0.0001
0.8625	0.0001
0.8630	0.0001
0.8635	0.0001
0.8640	0.0001
0.8645	0.0001
0.8650	0.0001
0.8655	0.0001
0.8660	0.0002
0.8665	0.0001
0.8670	0.0002
0.8675	0.0002
0.8680	0.0002
0.8685	0.0002
0.8690	0.0002
0.8695	0.0002
0.8700	0.0002
0.8705	0.0003
0.8710	0.0003
0.8715	0.0003
0.8720	0.0003
0.8725	0.0004
0.8730	0.0003
0.8735	0.0004
0.8740	0.0004
0.8745	0.0005
0.8750	0.0005
0.8755	0.0006
0.8760	0.0006
0.8765	0.0006
0.8770	0.0007
0.8775	0.0010
0.8780	0.0010
0.8785	0.0013
0.8790	0.0016
0.8795	0.0020
0.8800	0.0023
0.8805	0.0027
0.8810	0.0032
0.8815	0.0036
0.8820	0.0039
0.8825	0.0046
0.8830	0.0048
0.8835	0.0053
0.8840	0.0056
0.8845	0.0062
0.8850	0.0063
0.8855	0.0070
0.8860	0.0075
0.8865	0.0079
0.8870	0.0087
0.8875	0.0093
0.8880	0.0104
0.8885	0.0117
0.8890	0.0133
0.8895	0.0154
0.8900	0.0177
0.8905	0.0208
0.8910	0.0248
0.8915	0.0299
0.8920	0.0363
0.8925	0.0435
0.8930	0.0524
0.8935	0.0622
0.8940	0.0731
0.8945	0.0854
0.8950	0.0967
0.8955	0.1078
0.8960	0.1172
0.8965	0.1249
0.8970	0.1314
0.8975	0.1370
0.8980	0.1423
0.8985	0.1471
0.8990	0.1523
0.8995	0.1580
0.9000	0.1646
0.9005	0.1726
0.9010	0.1816
0.9015	0.1914
0.9020	0.2019
0.9025	0.2131
0.9030	0.2242
0.9035	0.2353
0.9040	0.2469
0.9045	0.2573
0.9050	0.2675
0.9055	0.2758
0.9060	0.2820
0.9065	0.2881
0.9070	0.2920
0.9075	0.2947
0.9080	0.2962
0.9085	0.2960
0.9090	0.2958
0.9095	0.2953
0.9100	0.2941
0.9105	0.2934
0.9110	0.2929
0.9115	0.2926
0.9120	0.2937
0.9125	0.2947
0.9130	0.2963
0.9135	0.2985
0.9140	0.3006
0.9145	0.3017
0.9150	0.3035
0.9155	0.3040
0.9160	0.3048
0.9165	0.3051
0.9170	0.3048
0.9175	0.3045
0.9180	0.3039
0.9185	0.3030
0.9190	0.3026
0.9195	0.3020
0.9200	0.3024
0.9205	0.3032
0.9210	0.3046
0.9215	0.3065
0.9220	0.3085
0.9225	0.3105
0.9230	0.3133
0.9235	0.3149
0.9240	0.3165
0.9245	0.3172
0.9250	0.3170
0.9255	0.3161
0.9260	0.3149
0.9265	0.3132
0.9270	0.3109
0.9275	0.3087
0.9280	0.3060
0.9285	0.3035
0.9290	0.3007
0.9295	0.2983
0.9300	0.2963
0.9305	0.2940
0.9310	0.2921
0.9315	0.2906
0.9320	0.2889
0.9325	0.2878
0.9330	0.2866
0.9335	0.2860
0.9340	0.2852
0.9345	0.2849
0.9350	0.2850
0.9355	0.2856
0.9360	0.2861
0.9365	0.2884
0.9370	0.2909
0.9375	0.2936
0.9380	0.2972
0.9385	0.3004
0.9390	0.3037
0.9395	0.3079
0.9400	0.3121
0.9405	0.3152
0.9410	0.3189
0.9415	0.3213
0.9420	0.3233
0.9425	0.3260
0.9430	0.3272
0.9435	0.3281
0.9440	0.3287
0.9445	0.3273
0.9450	0.3276
0.9455	0.3267
0.9460	0.3260
0.9465	0.3262
0.9470	0.3263
0.9475	0.3267
0.9480	0.3280
0.9485	0.3290
0.9490	0.3307
0.9495	0.3322
0.9500	0.3338
0.9505	0.3344
0.9510	0.3351
0.9515	0.3358
0.9520	0.3366
0.9525	0.3384
0.9530	0.3401
0.9535	0.3418
0.9540	0.3431
0.9545	0.3448
0.9550	0.3462
0.9555	0.3471
0.9560	0.3489
0.9565	0.3497
0.9570	0.3508
0.9575	0.3515
0.9580	0.3512
0.9585	0.3502
0.9590	0.3490
0.9595	0.3463
0.9600	0.3437
0.9605	0.3410
0.9610	0.3381
0.9615	0.3357
0.9620	0.3331
0.9625	0.3317
0.9630	0.3323
0.9635	0.3325
0.9640	0.3346
0.9645	0.3379
0.9650	0.3417
0.9655	0.3467
0.9660	0.3525
0.9665	0.3588
0.9670	0.3667
0.9675	0.3743
0.9680	0.3810
0.9685	0.3871
0.9690	0.3914
0.9695	0.3942
0.9700	0.3964
0.9705	0.3957
0.9710	0.3943
0.9715	0.3913
0.9720	0.3865
0.9725	0.3824
0.9730	0.3784
0.9735	0.3740
0.9740	0.3707
0.9745	0.3685
0.9750	0.3684
0.9755	0.3701
0.9760	0.3721
0.9765	0.3764
0.9770	0.3821
0.9775	0.3894
0.9780	0.3984
0.9785	0.4078
0.9790	0.4171
0.9795	0.4277
0.9800	0.4387
0.9805	0.4482
0.9810	0.4574
0.9815	0.4640
0.9820	0.4705
0.9825	0.4761
0.9830	0.4796
0.9835	0.4816
0.9840	0.4825
0.9845	0.4825
0.9850	0.4831
0.9855	0.4823
0.9860	0.4816
0.9865	0.4814
0.9870	0.4812
0.9875	0.4808
0.9880	0.4819
0.9885	0.4830
0.9890	0.4850
0.9895	0.4861
0.9900	0.4882
0.9905	0.4895
0.9910	0.4906
0.9915	0.4916
0.9920	0.4924
0.9925	0.4937
0.9930	0.4943
0.9935	0.4953
0.9940	0.4959
0.9945	0.4979
0.9950	0.5005
0.9955	0.5026
0.9960	0.5048
0.9965	0.5074
0.9970	0.5098
0.9975	0.5130
0.9980	0.5144
0.9985	0.5157
0.9990	0.5170
0.9995	0.5177
1.0000	0.5179
1.0005	0.5177
1.0010	0.5165
1.0015	0.5157
1.0020	0.5138
1.0025	0.5116
1.0030	0.5090
1.0035	0.5065
1.0040	0.5043
1.0045	0.5026
1.0050	0.5004
1.0055	0.4975
1.0060	0.4952
1.0065	0.4921
1.0070	0.4905
1.0075	0.4887
1.0080	0.4862
1.0085	0.4849
1.0090	0.4834
1.0095	0.4821
1.0100	0.4822
1.0105	0.4805
1.0110	0.4808
1.0115	0.4812
1.0120	0.4813
1.0125	0.4826
1.0130	0.4843
1.0135	0.4854
1.0140	0.4877
1.0145	0.4893
1.0150	0.4911
1.0155	0.4933
1.0160	0.4931
1.0165	0.4950
1.0170	0.4960
1.0175	0.4967
1.0180	0.4968
1.0185	0.4966
1.0190	0.4956
1.0195	0.4953
1.0200	0.4929
1.0205	0.4905
1.0210	0.4886
1.0215	0.4856
1.0220	0.4835
1.0225	0.4821
1.0230	0.4808
1.0235	0.4807
1.0240	0.4808
1.0245	0.4803
1.0250	0.4810
1.0255	0.4816
1.0260	0.4826
1.0265	0.4839
1.0270	0.4851
1.0275	0.4863
1.0280	0.4876
1.0285	0.4889
1.0290	0.4901
1.0295	0.4905
1.0300	0.4904
1.0305	0.4907
1.0310	0.4896
1.0315	0.4875
1.0320	0.4869
1.0325	0.4844
1.0330	0.4830
1.0335	0.4819
1.0340	0.4799
1.0345	0.4799
1.0350	0.4792
1.0355	0.4787
1.0360	0.4807
1.0365	0.4804
1.0370	0.4807
1.0375	0.4829
1.0380	0.4845
1.0385	0.4868
1.0390	0.4896
1.0395	0.4918
1.0400	0.4953
1.0405	0.5003
1.0410	0.5038
1.0415	0.5088
1.0420	0.5127
1.0425	0.5160
1.0430	0.5204
1.0435	0.5236
1.0440	0.5268
1.0445	0.5299
1.0450	0.5319
1.0455	0.5331
1.0460	0.5344
1.0465	0.5358
1.0470	0.5373
1.0475	0.5374
1.0480	0.5379
1.0485	0.5402
1.0490	0.5412
1.0495	0.5430
1.0500	0.5450
1.0505	0.5444
1.0510	0.5450
1.0515	0.5455
1.0520	0.5458
1.0525	0.5464
1.0530	0.5474
1.0535	0.5474
1.0540	0.5495
1.0545	0.5507
1.0550	0.5518
1.0555	0.5545
1.0560	0.5555
1.0565	0.5570
1.0570	0.5579
1.0575	0.5585
1.0580	0.5590
1.0585	0.5591
1.0590	0.5576
1.0595	0.5567
1.0600	0.5541
1.0605	0.5513
1.0610	0.5491
1.0615	0.5453
1.0620	0.5425
1.0625	0.5393
1.0630	0.5342
1.0635	0.5326
1.0640	0.5293
1.0645	0.5261
1.0650	0.5239
1.0655	0.5228
1.0660	0.5210
1.0665	0.5206
1.0670	0.5204
1.0675	0.5213
1.0680	0.5224
1.0685	0.5251
1.0690	0.5298
1.0695	0.5343
1.0700	0.5384
1.0705	0.5430
1.0710	0.5463
1.0715	0.5502
1.0720	0.5544
1.0725	0.5582
1.0730	0.5609
1.0735	0.5647
1.0740	0.5673
1.0745	0.5712
1.0750	0.5750
1.0755	0.5777
1.0760	0.5800
1.0765	0.5818
1.0770	0.5827
1.0775	0.5847
1.0780	0.5846
1.0785	0.5844
1.0790	0.5858
1.0795	0.5848
1.0800	0.5846
1.0805	0.5830
1.0810	0.5815
1.0815	0.5816
1.0820	0.5796
1.0825	0.5780
1.0830	0.5771
1.0835	0.5753
1.0840	0.5741
1.0845	0.5747
1.0850	0.5744
1.0855	0.5757
1.0860	0.5767
1.0865	0.5759
1.0870	0.5771
1.0875	0.5763
1.0880	0.5765
1.0885	0.5775
1.0890	0.5774
1.0895	0.5784
1.0900	0.5797
1.0905	0.5808
1.0910	0.5827
1.0915	0.5840
1.0920	0.5847
1.0925	0.5864
1.0930	0.5877
1.0935	0.5875
1.0940	0.5887
1.0945	0.5869
1.0950	0.5852
1.0955	0.5829
1.0960	0.5808
1.0965	0.5818
1.0970	0.5830
1.0975	0.5840
1.0980	0.5856
1.0985	0.5868
1.0990	0.5877
1.0995	0.5900
1.1000	0.5912
1.1005	0.5897
1.1010	0.5894
1.1015	0.5883
1.1020	0.5875
1.1025	0.5891
1.1030	0.5892
1.1035	0.5909
1.1040	0.5915
1.1045	0.5930
1.1050	0.5958
1.1055	0.5968
1.1060	0.5973
1.1065	0.5996
1.1070	0.5992
1.1075	0.6005
1.1080	0.6009
1.1085	0.5998
1.1090	0.6003
1.1095	0.6002
1.1100	0.5985
1.1105	0.5970
1.1110	0.5944
1.1115	0.5926
1.1120	0.5917
1.1125	0.5914
1.1130	0.5931
1.1135	0.5944
1.1140	0.5961
1.1145	0.5975
1.1150	0.5986
1.1155	0.5998
1.1160	0.6021
1.1165	0.6017
1.1170	0.6019
1.1175	0.6020
1.1180	0.6017
1.1185	0.6013
1.1190	0.6012
1.1195	0.5995
1.1200	0.5982
1.1205	0.5998
1.1210	0.6001
1.1215	0.6011
1.1220	0.6009
1.1225	0.5994
1.1230	0.5988
1.1235	0.5956
1.1240	0.5961
1.1245	0.5933
1.1250	0.5903
1.1255	0.5884
1.1260	0.5868
1.1265	0.5873
1.1270	0.5880
1.1275	0.5883
1.1280	0.5903
1.1285	0.5927
1.1290	0.5945
1.1295	0.5972
1.1300	0.6000
1.1305	0.6022
1.1310	0.6054
1.1315	0.6067
1.1320	0.6084
1.1325	0.6085
1.1330	0.6075
1.1335	0.6078
1.1340	0.6068
1.1345	0.6046
1.1350	0.6034
1.1355	0.6019
1.1360	0.5990
1.1365	0.5986
1.1370	0.5965
1.1375	0.5943
1.1380	0.5935
1.1385	0.5914
1.1390	0.5897
1.1395	0.5902
1.1400	0.5896
1.1405	0.5877
1.1410	0.5867
1.1415	0.5847
1.1420	0.5854
1.1425	0.5872
1.1430	0.5896
1.1435	0.5927
1.1440	0.5945
1.1445	0.5988
1.1450	0.6034
1.1455	0.6061
1.1460	0.6103
1.1465	0.6117
1.1470	0.6118
1.1475	0.6128
1.1480	0.6132
1.1485	0.6114
1.1490	0.6109
1.1495	0.6083
1.1500	0.6056
1.1505	0.6042
1.1510	0.6015
1.1515	0.5989
1.1520	0.5962
1.1525	0.5931
1.1530	0.5917
1.1535	0.5896
1.1540	0.5871
1.1545	0.5868
1.1550	0.5861
1.1555	0.5851
1.1560	0.5867
1.1565	0.5866
1.1570	0.5876
1.1575	0.5888
1.1580	0.5916
1.1585	0.5942
1.1590	0.5977
1.1595	0.6005
1.1600	0.6046
1.1605	0.6092
1.1610	0.6144
1.1615	0.6201
1.1620	0.6232
1.1625	0.6266
1.1630	0.6306
1.1635	0.6329
1.1640	0.6346
1.1645	0.6362
1.1650	0.6359
1.1655	0.6350
1.1660	0.6335
1.1665	0.6311
1.1670	0.6286
1.1675	0.6250
1.1680	0.6214
1.1685	0.6181
1.1690	0.6145
1.1695	0.6108
1.1700	0.6066
1.1705	0.6021
1.1710	0.5990
1.1715	0.5949
1.1720	0.5922
1.1725	0.5894
1.1730	0.5860
1.1735	0.5844
1.1740	0.5823
1.1745	0.5823
1.1750	0.5829
1.1755	0.5841
1.1760	0.5858
1.1765	0.5886
1.1770	0.5921
1.1775	0.5948
1.1780	0.5993
1.1785	0.6028
1.1790	0.6059
1.1795	0.6099
1.1800	0.6132
1.1805	0.6164
1.1810	0.6196
1.1815	0.6215
1.1820	0.6242
1.1825	0.6270
1.1830	0.6299
1.1835	0.6321
1.1840	0.6332
1.1845	0.6350
1.1850	0.6373
1.1855	0.6375
1.1860	0.6380
1.1865	0.6382
1.1870	0.6367
1.1875	0.6357
1.1880	0.6344
1.1885	0.6323
1.1890	0.6304
1.1895	0.6277
1.1900	0.6253
1.1905	0.6244
1.1910	0.6218
1.1915	0.6200
1.1920	0.6185
1.1925	0.6161
1.1930	0.6146
1.1935	0.6130
1.1940	0.6108
1.1945	0.6096
1.1950	0.6078
1.1955	0.6059
1.1960	0.6049
1.1965	0.6038
1.1970	0.6027
1.1975	0.6017
1.1980	0.6004
1.1985	0.5995
1.1990	0.5978
1.1995	0.5962
1.2000	0.5960
1.2005	0.5968
1.2010	0.5960
1.2015	0.5971
1.2020	0.5982
1.2025	0.5979
1.2030	0.5993
1.2035	0.6001
1.2040	0.6013
1.2045	0.6026
1.2050	0.6032
1.2055	0.6047
1.2060	0.6062
1.2065	0.6074
1.2070	0.6093
1.2075	0.6114
1.2080	0.6131
1.2085	0.6154
1.2090	0.6170
1.2095	0.6193
1.2100	0.6213
1.2105	0.6237
1.2110	0.6263
1.2115	0.6288
1.2120	0.6308
1.2125	0.6323
1.2130	0.6336
1.2135	0.6341
1.2140	0.6349
1.2145	0.6357
1.2150	0.6354
1.2155	0.6361
1.2160	0.6360
1.2165	0.6360
1.2170	0.6363
1.2175	0.6361
1.2180	0.6374
1.2185	0.6365
1.2190	0.6366
1.2195	0.6370
1.2200	0.6367
1.2205	0.6367
1.2210	0.6372
1.2215	0.6371
1.2220	0.6377
1.2225	0.6399
1.2230	0.6404
1.2235	0.6422
1.2240	0.6440
1.2245	0.6443
1.2250	0.6449
1.2255	0.6462
1.2260	0.6469
1.2265	0.6476
1.2270	0.6468
1.2275	0.6471
1.2280	0.6475
1.2285	0.6473
1.2290	0.6476
1.2295	0.6477
1.2300	0.6477
1.2305	0.6481
1.2310	0.6481
1.2315	0.6477
1.2320	0.6479
1.2325	0.6468
1.2330	0.6473
1.2335	0.6464
1.2340	0.6459
1.2345	0.6463
1.2350	0.6463
1.2355	0.6463
1.2360	0.6468
1.2365	0.6483
1.2370	0.6495
1.2375	0.6507
1.2380	0.6518
1.2385	0.6520
1.2390	0.6534
1.2395	0.6526
1.2400	0.6532
1.2405	0.6525
1.2410	0.6512
1.2415	0.6509
1.2420	0.6494
1.2425	0.6486
1.2430	0.6474
1.2435	0.6459
1.2440	0.6459
1.2445	0.6462
1.2450	0.6468
1.2455	0.6472
1.2460	0.6480
1.2465	0.6488
1.2470	0.6485
1.2475	0.6504
1.2480	0.6508
1.2485	0.6521
1.2490	0.6518
1.2495	0.6516
1.2500	0.6532
1.2505	0.6537
1.2510	0.6536
1.2515	0.6553
1.2520	0.6559
1.2525	0.6573
1.2530	0.6568
1.2535	0.6568
1.2540	0.6573
1.2545	0.6588
1.2550	0.6594
1.2555	0.6603
1.2560	0.6602
1.2565	0.6606
1.2570	0.6599
1.2575	0.6588
1.2580	0.6586
1.2585	0.6561
1.2590	0.6527
1.2595	0.6500
1.2600	0.6463
1.2605	0.6427
1.2610	0.6397
1.2615	0.6355
1.2620	0.6310
1.2625	0.6281
1.2630	0.6246
1.2635	0.6229
1.2640	0.6199
1.2645	0.6176
1.2650	0.6166
1.2655	0.6143
1.2660	0.6123
1.2665	0.6110
1.2670	0.6092
1.2675	0.6077
1.2680	0.6071
1.2685	0.6062
1.2690	0.6065
1.2695	0.6078
1.2700	0.6077
1.2705	0.6107
1.2710	0.6118
1.2715	0.6133
1.2720	0.6174
1.2725	0.6192
1.2730	0.6217
1.2735	0.6247
1.2740	0.6280
1.2745	0.6309
1.2750	0.6334
1.2755	0.6356
1.2760	0.6391
1.2765	0.6419
1.2770	0.6444
1.2775	0.6481
1.2780	0.6499
1.2785	0.6518
1.2790	0.6545
1.2795	0.6550
1.2800	0.6567
1.2805	0.6574
1.2810	0.6577
1.2815	0.6584
1.2820	0.6583
1.2825	0.6568
1.2830	0.6559
1.2835	0.6546
1.2840	0.6531
1.2845	0.6521
1.2850	0.6501
1.2855	0.6489
1.2860	0.6477
1.2865	0.6469
1.2870	0.6471
1.2875	0.6470
1.2880	0.6458
1.2885	0.6461
1.2890	0.6466
1.2895	0.6454
1.2900	0.6453
1.2905	0.6452
1.2910	0.6457
1.2915	0.6474
1.2920	0.6472
1.2925	0.6471
1.2930	0.6477
1.2935	0.6469
1.2940	0.6484
1.2945	0.6469
1.2950	0.6469
1.2955	0.6473
1.2960	0.6469
1.2965	0.6473
1.2970	0.6502
1.2975	0.6503
1.2980	0.6519
1.2985	0.6526
1.2990	0.6522
1.2995	0.6535
1.3000	0.6540
1.3005	0.6540
1.3010	0.6555
1.3015	0.6558
1.3020	0.6565
1.3025	0.6558
1.3030	0.6563
1.3035	0.6571
1.3040	0.6571
1.3045	0.6570
1.3050	0.6579
1.3055	0.6578
1.3060	0.6581
1.3065	0.6591
1.3070	0.6588
1.3075	0.6588
1.3080	0.6589
1.3085	0.6595
1.3090	0.6595
1.3095	0.6607
1.3100	0.6601
1.3105	0.6603
1.3110	0.6596
1.3115	0.6586
1.3120	0.6591
1.3125	0.6575
1.3130	0.6563
1.3135	0.6546
1.3140	0.6539
1.3145	0.6528
1.3150	0.6518
1.3155	0.6500
1.3160	0.6484
1.3165	0.6487
1.3170	0.6483
1.3175	0.6494
1.3180	0.6488
1.3185	0.6497
1.3190	0.6513
1.3195	0.6525
1.3200	0.6539
1.3205	0.6550
1.3210	0.6553
1.3215	0.6574
1.3220	0.6586
1.3225	0.6590
1.3230	0.6604
1.3235	0.6608
1.3240	0.6619
1.3245	0.6632
1.3250	0.6645
1.3255	0.6651
1.3260	0.6648
1.3265	0.6660
1.3270	0.6668
1.3275	0.6667
1.3280	0.6663
1.3285	0.6648
1.3290	0.6633
1.3295	0.6620
1.3300	0.6601
1.3305	0.6585
1.3310	0.6565
1.3315	0.6551
1.3320	0.6535
1.3325	0.6512
1.3330	0.6488
1.3335	0.6461
1.3340	0.6441
1.3345	0.6409
1.3350	0.6380
1.3355	0.6363
1.3360	0.6335
1.3365	0.6324
1.3370	0.6313
1.3375	0.6305
1.3380	0.6305
1.3385	0.6311
1.3390	0.6310
1.3395	0.6324
1.3400	0.6337
1.3405	0.6353
1.3410	0.6367
1.3415	0.6380
1.3420	0.6407
1.3425	0.6437
1.3430	0.6466
1.3435	0.6502
1.3440	0.6530
1.3445	0.6544
1.3450	0.6584
1.3455	0.6607
1.3460	0.6627
1.3465	0.6649
1.3470	0.6669
1.3475	0.6690
1.3480	0.6709
1.3485	0.6728
1.3490	0.6759
1.3495	0.6785
1.3500	0.6793
1.3505	0.6818
1.3510	0.6835
1.3515	0.6854
1.3520	0.6868
1.3525	0.6853
1.3530	0.6847
1.3535	0.6847
1.3540	0.6820
1.3545	0.6802
1.3550	0.6816
1.3555	0.6787
1.3560	0.6795
1.3565	0.6782
1.3570	0.6773
1.3575	0.6786
1.3580	0.6778
1.3585	0.6770
1.3590	0.6780
1.3595	0.6783
1.3600	0.6787
1.3605	0.6746
1.3610	0.6790
1.3615	0.6789
1.3620	0.6805
1.3625	0.6795
1.3630	0.6823
1.3635	0.6826
1.3640	0.6790
1.3645	0.6817
1.3650	0.6773
1.3655	0.6808
1.3660	0.6805
1.3665	0.6802
1.3670	0.6797
1.3675	0.6762
1.3680	0.6775
1.3685	0.6754
1.3690	0.6765
1.3695	0.6733
1.3700	0.6748
1.3705	0.6671
1.3710	0.6665
1.3715	0.6654
1.3720	0.6602
1.3725	0.6614
1.3730	0.6633
1.3735	0.6618
1.3740	0.6619
1.3745	0.6610
1.3750	0.6624
1.3755	0.6639
1.3760	0.6632
1.3765	0.6624
1.3770	0.6623
1.3775	0.6623
1.3780	0.6643
1.3785	0.6612
1.3790	0.6619
1.3795	0.6624
1.3800	0.6584
1.3805	0.6579
1.3810	0.6644
1.3815	0.6676
1.3820	0.6667
1.3825	0.6647
1.3830	0.6723
1.3835	0.6682
1.3840	0.6780
1.3845	0.6771
1.3850	0.6775
1.3855	0.6784
1.3860	0.6792
1.3865	0.6816
1.3870	0.6826
1.3875	0.6836
1.3880	0.6804
1.3885	0.6842
1.3890	0.6852
1.3895	0.6862
1.3900	0.6862
1.3905	0.6866
1.3910	0.6877
1.3915	0.6875
1.3920	0.6837
1.3925	0.6891
1.3930	0.6903
1.3935	0.6931
1.3940	0.6943
1.3945	0.6932
1.3950	0.6944
1.3955	0.6951
1.3960	0.6911
1.3965	0.6970
1.3970	0.6975
1.3975	0.6989
1.3980	0.6994
1.3985	0.7012
1.3990	0.7002
1.3995	0.7026
1.4000	0.7033
1.4005	0.7060
1.4010	0.7054
1.4015	0.7092
1.4020	0.7108
1.4025	0.7113
1.4030	0.7131
1.4035	0.7140
1.4040	0.7151
1.4045	0.7126
1.4050	0.7148
1.4055	0.7149
1.4060	0.7151
1.4065	0.7128
1.4070	0.7121
1.4075	0.7107
1.4080	0.7097
1.4085	0.7098
1.4090	0.7069
1.4095	0.7087
1.4100	0.7066
1.4105	0.7060
1.4110	0.7057
1.4115	0.7054
1.4120	0.7044
1.4125	0.7048
1.4130	0.7029
1.4135	0.7017
1.4140	0.6982
1.4145	0.6977
1.4150	0.6971
1.4155	0.6963
1.4160	0.6945
1.4165	0.6961
1.4170	0.6950
1.4175	0.6960
1.4180	0.6961
1.4185	0.6949
1.4190	0.6941
1.4195	0.6942
1.4200	0.6942
1.4205	0.6948
1.4210	0.6948
1.4215	0.6952
1.4220	0.6954
1.4225	0.6967
1.4230	0.6969
1.4235	0.6973
1.4240	0.6985
1.4245	0.6991
1.4250	0.7008
1.4255	0.7018
1.4260	0.7037
1.4265	0.7056
1.4270	0.7073
1.4275	0.7083
1.4280	0.7109
1.4285	0.7102
1.4290	0.7127
1.4295	0.7137
1.4300	0.7142
1.4305	0.7134
1.4310	0.7123
1.4315	0.7124
1.4320	0.7113
1.4325	0.7122
1.4330	0.7126
1.4335	0.7131
1.4340	0.7138
1.4345	0.7135
1.4350	0.7125
1.4355	0.7130
1.4360	0.7143
1.4365	0.7151
1.4370	0.7158
1.4375	0.7169
1.4380	0.7177
1.4385	0.7179
1.4390	0.7185
1.4395	0.7170
1.4400	0.7179
1.4405	0.7175
1.4410	0.7176
1.4415	0.7167
1.4420	0.7168
1.4425	0.7176
1.4430	0.7188
1.4435	0.7184
1.4440	0.7204
1.4445	0.7217
1.4450	0.7202
1.4455	0.7181
1.4460	0.7200
1.4465	0.7206
1.4470	0.7212
1.4475	0.7222
1.4480	0.7223
1.4485	0.7221
1.4490	0.7203
1.4495	0.7189
1.4500	0.7176
1.4505	0.7170
1.4510	0.7156
1.4515	0.7147
1.4520	0.7144
1.4525	0.7133
1.4530	0.7139
1.4535	0.7133
1.4540	0.7134
1.4545	0.7130
1.4550	0.7147
1.4555	0.7155
1.4560	0.7170
1.4565	0.7174
1.4570	0.7175
1.4575	0.7175
1.4580	0.7169
1.4585	0.7176
1.4590	0.7165
1.4595	0.7174
1.4600	0.7166
1.4605	0.7183
1.4610	0.7210
1.4615	0.7228
1.4620	0.7263
1.4625	0.7287
1.4630	0.7318
1.4635	0.7341
1.4640	0.7374
1.4645	0.7383
1.4650	0.7392
1.4655	0.7398
1.4660	0.7410
1.4665	0.7404
1.4670	0.7399
1.4675	0.7388
1.4680	0.7378
1.4685	0.7396
1.4690	0.7390
1.4695	0.7387
1.4700	0.7389
1.4705	0.7385
1.4710	0.7387
1.4715	0.7397
1.4720	0.7389
1.4725	0.7381
1.4730	0.7376
1.4735	0.7363
1.4740	0.7364
1.4745	0.7352
1.4750	0.7336
1.4755	0.7326
1.4760	0.7320
1.4765	0.7301
1.4770	0.7285
1.4775	0.7271
1.4780	0.7246
1.4785	0.7249
1.4790	0.7268
1.4795	0.7276
1.4800	0.7283
1.4805	0.7290
1.4810	0.7306
1.4815	0.7313
1.4820	0.7321
1.4825	0.7331
1.4830	0.7358
1.4835	0.7379
1.4840	0.7405
1.4845	0.7413
1.4850	0.7408
1.4855	0.7418
1.4860	0.7418
1.4865	0.7424
1.4870	0.7420
1.4875	0.7416
1.4880	0.7409
1.4885	0.7407
1.4890	0.7417
1.4895	0.7411
1.4900	0.7415
1.4905	0.7402
1.4910	0.7402
1.4915	0.7391
1.4920	0.7382
1.4925	0.7381
1.4930	0.7361
1.4935	0.7365
1.4940	0.7353
1.4945	0.7343
1.4950	0.7339
1.4955	0.7324
1.4960	0.7313
1.4965	0.7291
1.4970	0.7265
1.4975	0.7252
1.4980	0.7234
1.4985	0.7217
1.4990	0.7179
1.4995	0.7153
1.5000	0.7120
1.5005	0.7136
1.5010	0.7139
1.5015	0.7155
1.5020	0.7175
1.5025	0.7190
1.5030	0.7219
1.5035	0.7248
1.5040	0.7263
1.5045	0.7289
1.5050	0.7302
1.5055	0.7329
1.5060	0.7350
1.5065	0.7362
1.5070	0.7381
1.5075	0.7403
1.5080	0.7416
1.5085	0.7432
1.5090	0.7446
1.5095	0.7452
1.5100	0.7478
1.5105	0.7488
1.5110	0.7504
1.5115	0.7519
1.5120	0.7530
1.5125	0.7544
1.5130	0.7559
1.5135	0.7566
1.5140	0.7575
1.5145	0.7593
1.5150	0.7579
1.5155	0.7587
1.5160	0.7596
1.5165	0.7587
1.5170	0.7582
1.5175	0.7576
1.5180	0.7566
1.5185	0.7569
1.5190	0.7562
1.5195	0.7562
1.5200	0.7560
1.5205	0.7560
1.5210	0.7551
1.5215	0.7547
1.5220	0.7543
1.5225	0.7537
1.5230	0.7539
1.5235	0.7528
1.5240	0.7532
1.5245	0.7513
1.5250	0.7480
1.5255	0.7466
1.5260	0.7445
1.5265	0.7436
1.5270	0.7424
1.5275	0.7413
1.5280	0.7410
1.5285	0.7423
1.5290	0.7442
1.5295	0.7455
1.5300	0.7461
1.5305	0.7473
1.5310	0.7482
1.5315	0.7484
1.5320	0.7500
1.5325	0.7489
1.5330	0.7491
1.5335	0.7479
1.5340	0.7475
1.5345	0.7462
1.5350	0.7455
1.5355	0.7441
1.5360	0.7436
1.5365	0.7438
1.5370	0.7427
1.5375	0.7423
1.5380	0.7420
1.5385	0.7412
1.5390	0.7411
1.5395	0.7408
1.5400	0.7391
1.5405	0.7392
1.5410	0.7366
1.5415	0.7352
1.5420	0.7335
1.5425	0.7336
1.5430	0.7343
1.5435	0.7344
1.5440	0.7340
1.5445	0.7343
1.5450	0.7343
1.5455	0.7350
1.5460	0.7360
1.5465	0.7354
1.5470	0.7355
1.5475	0.7364
1.5480	0.7367
1.5485	0.7396
1.5490	0.7433
1.5495	0.7457
1.5500	0.7499
1.5505	0.7494
1.5510	0.7491
1.5515	0.7484
1.5520	0.7483
1.5525	0.7488
1.5530	0.7480
1.5535	0.7478
1.5540	0.7472
1.5545	0.7498
1.5550	0.7527
1.5555	0.7550
1.5560	0.7575
1.5565	0.7588
1.5570	0.7590
1.5575	0.7594
1.5580	0.7605
1.5585	0.7613
1.5590	0.7612
1.5595	0.7613
1.5600	0.7619
1.5605	0.7609
1.5610	0.7624
1.5615	0.7632
1.5620	0.7627
1.5625	0.7634
1.5630	0.7633
1.5635	0.7627
1.5640	0.7629
1.5645	0.7618
1.5650	0.7621
1.5655	0.7620
1.5660	0.7609
1.5665	0.7605
1.5670	0.7585
1.5675	0.7593
1.5680	0.7577
1.5685	0.7577
1.5690	0.7581
1.5695	0.7587
1.5700	0.7598
1.5705	0.7602
1.5710	0.7610
1.5715	0.7622
1.5720	0.7629
1.5725	0.7643
1.5730	0.7671
1.5735	0.7688
1.5740	0.7712
1.5745	0.7696
1.5750	0.7683
1.5755	0.7671
1.5760	0.7653
1.5765	0.7666
1.5770	0.7680
1.5775	0.7683
1.5780	0.7683
1.5785	0.7704
1.5790	0.7736
1.5795	0.7764
1.5800	0.7789
1.5805	0.7803
1.5810	0.7818
1.5815	0.7833
1.5820	0.7856
1.5825	0.7858
1.5830	0.7877
1.5835	0.7878
1.5840	0.7896
1.5845	0.7894
1.5850	0.7880
1.5855	0.7862
1.5860	0.7854
1.5865	0.7840
1.5870	0.7830
1.5875	0.7810
1.5880	0.7795
1.5885	0.7794
1.5890	0.7778
1.5895	0.7785
1.5900	0.7785
1.5905	0.7774
1.5910	0.7760
1.5915	0.7747
1.5920	0.7739
1.5925	0.7754
1.5930	0.7762
1.5935	0.7773
1.5940	0.7784
1.5945	0.7756
1.5950	0.7722
1.5955	0.7700
1.5960	0.7673
1.5965	0.7640
1.5970	0.7622
1.5975	0.7603
1.5980	0.7585
1.5985	0.7584
1.5990	0.7570
1.5995	0.7561
1.6000	0.7562
1.6005	0.7564
1.6010	0.7569
1.6015	0.7566
1.6020	0.7561
1.6025	0.7577
1.6030	0.7575
1.6035	0.7583
1.6040	0.7592
1.6045	0.7588
1.6050	0.7606
1.6055	0.7605
1.6060	0.7612
1.6065	0.7627
1.6070	0.7630
1.6075	0.7627
1.6080	0.7637
1.6085	0.7641
1.6090	0.7647
1.6095	0.7651
1.6100	0.7654
1.6105	0.7669
1.6110	0.7673
1.6115	0.7678
1.6120	0.7698
1.6125	0.7686
1.6130	0.7679
1.6135	0.7674
1.6140	0.7653
1.6145	0.7639
1.6150	0.7628
1.6155	0.7606
1.6160	0.7588
1.6165	0.7577
1.6170	0.7567
1.6175	0.7554
1.6180	0.7534
1.6185	0.7514
1.6190	0.7497
1.6195	0.7468
1.6200	0.7447
1.6205	0.7426
1.6210	0.7400
1.6215	0.7382
1.6220	0.7367
1.6225	0.7344
1.6230	0.7335
1.6235	0.7315
1.6240	0.7297
1.6245	0.7301
1.6250	0.7288
1.6255	0.7277
1.6260	0.7276
1.6265	0.7283
1.6270	0.7299
1.6275	0.7313
1.6280	0.7317
1.6285	0.7362
1.6290	0.7402
1.6295	0.7426
1.6300	0.7480
1.6305	0.7464
1.6310	0.7454
1.6315	0.7447
1.6320	0.7431
1.6325	0.7438
1.6330	0.7433
1.6335	0.7425
1.6340	0.7428
1.6345	0.7440
1.6350	0.7441
1.6355	0.7463
1.6360	0.7464
1.6365	0.7463
1.6370	0.7485
1.6375	0.7486
1.6380	0.7497
1.6385	0.7498
1.6390	0.7492
1.6395	0.7506
1.6400	0.7504
1.6405	0.7494
1.6410	0.7493
1.6415	0.7480
1.6420	0.7465
1.6425	0.7478
1.6430	0.7468
1.6435	0.7464
1.6440	0.7467
1.6445	0.7453
1.6450	0.7434
1.6455	0.7422
1.6460	0.7401
1.6465	0.7395
1.6470	0.7375
1.6475	0.7354
1.6480	0.7343
1.6485	0.7313
1.6490	0.7287
1.6495	0.7269
1.6500	0.7237
1.6505	0.7216
1.6510	0.7181
1.6515	0.7156
1.6520	0.7138
1.6525	0.7111
1.6530	0.7089
1.6535	0.7072
1.6540	0.7058
1.6545	0.7063
1.6550	0.7068
1.6555	0.7064
1.6560	0.7065
1.6565	0.7053
1.6570	0.7035
1.6575	0.7026
1.6580	0.7011
1.6585	0.6989
1.6590	0.6970
1.6595	0.6950
1.6600	0.6929
1.6605	0.6949
1.6610	0.6953
1.6615	0.6969
1.6620	0.6984
1.6625	0.7009
1.6630	0.7035
1.6635	0.7055
1.6640	0.7085
1.6645	0.7102
1.6650	0.7117
1.6655	0.7139
1.6660	0.7152
1.6665	0.7156
1.6670	0.7167
1.6675	0.7167
1.6680	0.7174
1.6685	0.7182
1.6690	0.7168
1.6695	0.7180
1.6700	0.7188
1.6705	0.7184
1.6710	0.7198
1.6715	0.7197
1.6720	0.7191
1.6725	0.7217
1.6730	0.7222
1.6735	0.7228
1.6740	0.7240
1.6745	0.7249
1.6750	0.7255
1.6755	0.7267
1.6760	0.7269
1.6765	0.7269
1.6770	0.7281
1.6775	0.7269
1.6780	0.7274
1.6785	0.7270
1.6790	0.7267
1.6795	0.7260
1.6800	0.7267
1.6805	0.7255
1.6810	0.7254
1.6815	0.7246
1.6820	0.7234
1.6825	0.7229
1.6830	0.7212
1.6835	0.7192
1.6840	0.7179
1.6845	0.7175
1.6850	0.7156
1.6855	0.7136
1.6860	0.7128
1.6865	0.7134
1.6870	0.7127
1.6875	0.7130
1.6880	0.7124
1.6885	0.7141
1.6890	0.7157
1.6895	0.7173
1.6900	0.7192
1.6905	0.7176
1.6910	0.7158
1.6915	0.7144
1.6920	0.7132
1.6925	0.7096
1.6930	0.7087
1.6935	0.7064
1.6940	0.7045
1.6945	0.7039
1.6950	0.7044
1.6955	0.7030
1.6960	0.7038
1.6965	0.7034
1.6970	0.7021
1.6975	0.7021
1.6980	0.7019
1.6985	0.6999
1.6990	0.6992
1.6995	0.6980
1.7000	0.6961
1.7005	0.6950
1.7010	0.6944
1.7015	0.6922
1.7020	0.6908
1.7025	0.6894
1.7030	0.6879
1.7035	0.6866
1.7040	0.6849
1.7045	0.6834
1.7050	0.6811
1.7055	0.6800
1.7060	0.6776
1.7065	0.6737
1.7070	0.6705
1.7075	0.6662
1.7080	0.6616
1.7085	0.6604
1.7090	0.6565
1.7095	0.6547
1.7100	0.6521
1.7105	0.6511
1.7110	0.6508
1.7115	0.6503
1.7120	0.6497
1.7125	0.6494
1.7130	0.6479
1.7135	0.6469
1.7140	0.6472
1.7145	0.6469
1.7150	0.6471
1.7155	0.6473
1.7160	0.6485
1.7165	0.6480
1.7170	0.6485
1.7175	0.6491
1.7180	0.6502
1.7185	0.6501
1.7190	0.6503
1.7195	0.6514
1.7200	0.6509
1.7205	0.6516
1.7210	0.6517
1.7215	0.6512
1.7220	0.6522
1.7225	0.6526
1.7230	0.6535
1.7235	0.6545
1.7240	0.6547
1.7245	0.6564
1.7250	0.6591
1.7255	0.6608
1.7260	0.6619
1.7265	0.6633
1.7270	0.6644
1.7275	0.6653
1.7280	0.6664
1.7285	0.6667
1.7290	0.6667
1.7295	0.6673
1.7300	0.6679
1.7305	0.6669
1.7310	0.6663
1.7315	0.6647
1.7320	0.6640
1.7325	0.6630
1.7330	0.6623
1.7335	0.6618
1.7340	0.6602
1.7345	0.6591
1.7350	0.6575
1.7355	0.6566
1.7360	0.6559
1.7365	0.6539
1.7370	0.6538
1.7375	0.6532
1.7380	0.6526
1.7385	0.6513
1.7390	0.6510
1.7395	0.6504
1.7400	0.6502
1.7405	0.6485
1.7410	0.6477
1.7415	0.6464
1.7420	0.6451
1.7425	0.6445
1.7430	0.6441
1.7435	0.6431
1.7440	0.6413
1.7445	0.6399
1.7450	0.6372
1.7455	0.6352
1.7460	0.6329
1.7465	0.6317
1.7470	0.6317
1.7475	0.6298
1.7480	0.6283
1.7485	0.6297
1.7490	0.6304
1.7495	0.6315
1.7500	0.6330
1.7505	0.6317
1.7510	0.6311
1.7515	0.6305
1.7520	0.6295
1.7525	0.6299
1.7530	0.6293
1.7535	0.6292
1.7540	0.6294
1.7545	0.6308
1.7550	0.6317
1.7555	0.6330
1.7560	0.6337
1.7565	0.6348
1.7570	0.6359
1.7575	0.6369
1.7580	0.6385
1.7585	0.6390
1.7590	0.6403
1.7595	0.6420
1.7600	0.6435
1.7605	0.6435
1.7610	0.6441
1.7615	0.6440
1.7620	0.6441
1.7625	0.6437
1.7630	0.6447
1.7635	0.6453
1.7640	0.6445
1.7645	0.6465
1.7650	0.6495
1.7655	0.6508
1.7660	0.6533
1.7665	0.6528
1.7670	0.6514
1.7675	0.6511
1.7680	0.6503
1.7685	0.6486
1.7690	0.6474
1.7695	0.6456
1.7700	0.6436
1.7705	0.6420
1.7710	0.6408
1.7715	0.6397
1.7720	0.6381
1.7725	0.6364
1.7730	0.6356
1.7735	0.6324
1.7740	0.6303
1.7745	0.6297
1.7750	0.6278
1.7755	0.6260
1.7760	0.6251
1.7765	0.6221
1.7770	0.6195
1.7775	0.6172
1.7780	0.6139
1.7785	0.6103
1.7790	0.6062
1.7795	0.6032
1.7800	0.5991
1.7805	0.5948
1.7810	0.5917
1.7815	0.5877
1.7820	0.5842
1.7825	0.5815
1.7830	0.5790
1.7835	0.5751
1.7840	0.5727
1.7845	0.5689
1.7850	0.5659
1.7855	0.5623
1.7860	0.5596
1.7865	0.5564
1.7870	0.5531
1.7875	0.5509
1.7880	0.5485
1.7885	0.5453
1.7890	0.5434
1.7895	0.5416
1.7900	0.5396
1.7905	0.5377
1.7910	0.5366
1.7915	0.5351
1.7920	0.5343
1.7925	0.5347
1.7930	0.5347
1.7935	0.5353
1.7940	0.5363
1.7945	0.5384
1.7950	0.5403
1.7955	0.5422
1.7960	0.5441
1.7965	0.5453
1.7970	0.5462
1.7975	0.5464
1.7980	0.5466
1.7985	0.5444
1.7990	0.5422
1.7995	0.5381
1.8000	0.5332
1.8005	0.5259
1.8010	0.5176
1.8015	0.5080
1.8020	0.4950
1.8025	0.4810
1.8030	0.4644
1.8035	0.4466
1.8040	0.4271
1.8045	0.4062
1.8050	0.3844
1.8055	0.3603
1.8060	0.3341
1.8065	0.3108
1.8070	0.2857
1.8075	0.2629
1.8080	0.2417
1.8085	0.2198
1.8090	0.1992
1.8095	0.1811
1.8100	0.1634
1.8105	0.1476
1.8110	0.1335
1.8115	0.1211
1.8120	0.1091
1.8125	0.0971
1.8130	0.0875
1.8135	0.0787
1.8140	0.0710
1.8145	0.0643
1.8150	0.0576
1.8155	0.0513
1.8160	0.0464
1.8165	0.0420
1.8170	0.0382
1.8175	0.0347
1.8180	0.0312
1.8185	0.0281
1.8190	0.0257
1.8195	0.0238
1.8200	0.0211
1.8205	0.0193
1.8210	0.0175
1.8215	0.0160
1.8220	0.0145
1.8225	0.0133
1.8230	0.0125
1.8235	0.0112
1.8240	0.0105
1.8245	0.0094
1.8250	0.0088
1.8255	0.0082
1.8260	0.0073
1.8265	0.0068
1.8270	0.0064
1.8275	0.0060
1.8280	0.0055
1.8285	0.0051
1.8290	0.0044
1.8295	0.0044
1.8300	0.0040
1.8305	0.0040
1.8310	0.0038
1.8315	0.0033
1.8320	0.0031
1.8325	0.0029
1.8330	0.0031
1.8335	0.0023
1.8340	0.0023
1.8345	0.0023
1.8350	0.0022
1.8355	0.0018
1.8360	0.0022
1.8365	0.0016
1.8370	0.0017
1.8375	0.0018
1.8380	0.0014
1.8385	0.0013
1.8390	0.0012
1.8395	0.0014
1.8400	0.0012
1.8405	0.0011
1.8410	0.0012
1.8415	0.0014
1.8420	0.0011
1.8425	0.0009
1.8430	0.0009
1.8435	0.0009
1.8440	0.0007
1.8445	0.0009
1.8450	0.0006
1.8455	0.0008
1.8460	0.0007
1.8465	0.0010
1.8470	0.0008
1.8475	0.0002
1.8480	0.0010
1.8485	0.0006
1.8490	0.0005
1.8495	0.0004
1.8500	0.0005
1.8505	0.0005
1.8510	0.0004
1.8515	0.0006
1.8520	0.0005
1.8525	0.0001
1.8530	0.0003
1.8535	0.0007
1.8540	0.0004
1.8545	0.0004
1.8550	0.0003
1.8555	0.0002
1.8560	0.0001
1.8565	0.0000
1.8570	0.0005
1.8575	0.0003
1.8580	0.0002
1.8585	0.0004
1.8590	0.0003
1.8595	0.0004
1.8600	0.0003
1.8605	0.0004
1.8610	0.0001
1.8615	0.0001
1.8620	0.0003
1.8625	0.0003
1.8630	0.0002
1.8635	0.0001
1.8640	0.0006
1.8645	0.0002
1.8650	0.0003
1.8655	0.0003
1.8660	0.0003
1.8665	0.0000
1.8670	0.0005
1.8675	0.0003
1.8680	0.0005
1.8685	0.0004
1.8690	0.0002
1.8695	0.0002
1.8700	0.0000
1.8705	0.0004
1.8710	0.0001
1.8715	0.0000
1.8720	0.0000
1.8725	0.0005
1.8730	0.0001
1.8735	0.0005
1.8740	0.0004
1.8745	0.0002
1.8750	0.0001
1.8755	0.0001
1.8760	0.0003
1.8765	0.0006
1.8770	0.0003
1.8775	0.0005
1.8780	0.0002
1.8785	0.0002
1.8790	0.0000
1.8795	0.0001
1.8800	0.0003
1.8805	0.0001
1.8810	0.0003
1.8815	0.0000
1.8820	0.0001
1.8825	0.0003
1.8830	-0.0001
1.8835	0.0002
1.8840	0.0002
1.8845	0.0000
1.8850	0.0002
1.8855	0.0001
1.8860	0.0001
1.8865	0.0003
1.8870	0.0001
1.8875	0.0002
1.8880	0.0002
1.8885	0.0001
1.8890	0.0000
1.8895	0.0002
1.8900	0.0003
1.8905	0.0002
1.8910	0.0001
1.8915	0.0005
1.8920	0.0002
1.8925	0.0003
1.8930	-0.0001
1.8935	0.0004
1.8940	0.0003
1.8945	0.0003
1.8950	0.0000
1.8955	0.0002
1.8960	0.0001
1.8965	0.0002
1.8970	0.0002
1.8975	0.0003
1.8980	0.0003
1.8985	0.0000
1.8990	0.0005
1.8995	-0.0001
1.9000	0.0005
